time (s)	coil I (A)	last det (V)	int current (uC)
404805.685584	0.389537	289.550781	107.617187
404805.687587	0.389062	4.279687	-0.648676
404806.735597	0.389989	254.687500	-237.792969
404806.737598	0.388863	4.277489	-0.567745
404807.750132	0.391014	283.300781	119.238281
404807.752129	0.389847	4.288319	-0.643822
404808.798237	0.386987	284.082031	-210.644531
404808.800244	0.389877	4.288647	-0.591933
404809.848284	0.391073	284.570312	113.183594
404809.850285	0.389861	4.288469	-0.635650
404810.894235	0.302970	259.667969	-230.371094
404810.896238	0.389544	259.667969	-230.371094
404810.898238	0.388125	4.269380	-0.564247
404811.910210	0.324219	282.324219	120.605469
404811.912212	0.389299	282.324219	120.605469
404811.916210	0.387952	4.267474	-0.635432
404812.992230	0.376077	233.007812	-256.738281
404812.994231	0.389089	233.007812	-256.738281
404812.996230	0.387950	4.267448	-0.560317
404814.008294	0.385700	287.597656	110.156250
404814.012296	0.388594	287.597656	110.156250
404814.018294	0.386645	4.253091	-0.631060
404815.056318	0.359153	268.066406	-224.414062
404815.058320	0.389244	268.066406	-224.414062
404815.060319	0.388060	4.268662	-0.532371
404816.072400	0.375530	287.695312	115.039062
404816.074401	0.389142	287.695312	115.039062
404816.076400	0.387993	4.267926	-0.616735
404817.156538	0.388400	230.273437	-263.183594
404817.158539	0.387485	4.262334	-0.528394
404818.170574	0.390200	294.726562	103.125000
404818.172575	0.388822	4.277046	-0.641496
404819.218579	0.389238	269.921875	-223.632812
404819.220579	0.390228	4.292511	-0.538337
404820.234663	0.392733	292.578125	110.839844
404820.236664	0.391643	4.308073	-0.611009
404821.314692	0.330794	229.394531	-261.914062
404821.316692	0.389623	229.394531	-261.914062
404821.318692	0.388325	4.271578	-0.524480
404822.330723	0.352227	293.457031	108.984375
404822.332725	0.389357	293.457031	108.984375
404822.334725	0.388176	4.269938	-0.613130
404823.379645	0.374635	241.015625	-250.000000
404823.381646	0.389695	241.015625	-250.000000
404823.383646	0.388585	4.274431	-0.512063
404824.397687	0.389220	290.527344	112.890625
404824.399686	0.388179	4.269974	-0.578760
404825.443727	0.355094	280.468750	-214.941406
404825.445731	0.388888	280.468750	-214.941406
404825.447730	0.387733	4.265064	-0.490903
404826.494694	0.390540	293.847656	106.152344
404826.496696	0.389341	4.282753	-0.592654
404827.540667	0.336625	250.488281	-241.113281
404827.542668	0.388825	250.488281	-241.113281
404827.544668	0.387499	4.262494	-0.531362
404828.556697	0.692857	289.257812	114.062500
404828.558700	0.390256	289.257812	114.062500
404828.560700	0.389036	4.279394	-0.586386
404829.604699	0.296219	284.472656	-211.621094
404829.606700	0.389540	284.472656	-211.621094
404829.610698	0.387169	4.258861	-0.502547
404830.655629	0.390253	293.652344	106.250000
404830.657632	0.388971	4.278677	-0.557383
404831.703629	0.389647	256.054687	-235.839844
404831.705628	0.388276	4.271037	-0.493445
404832.718146	0.349557	288.964844	115.917969
404832.720147	0.389473	288.964844	115.917969
404832.722148	0.388202	4.270222	-0.548743
404833.766190	0.290016	275.488281	-218.847656
404833.768191	0.389612	275.488281	-218.847656
404833.770192	0.388185	4.270036	-0.493783
404834.818275	0.390226	294.042969	109.472656
404834.820277	0.389259	4.281849	-0.573596
404835.864820	0.389494	259.277344	-232.324219
404835.866820	0.389481	4.284286	-0.475808
404836.880873	0.390034	293.261719	110.449219
404836.882875	0.388868	4.277551	-0.531599
404837.930885	0.390246	275.585937	-218.652344
404837.934886	0.388444	4.272881	-0.455120
404838.979392	0.389422	297.460937	105.664062
404838.981394	0.388315	4.271462	-0.554921
404840.025970	0.381130	264.648437	-226.660156
404840.027969	0.388765	264.648437	-226.660156
404840.029971	0.387715	4.264860	-0.466105
404841.043955	0.390523	294.335937	110.839844
404841.045963	0.389429	4.283719	-0.550621
404842.090479	0.385052	272.851562	-219.921875
404842.092482	0.388727	4.276000	-0.435339
404843.107004	0.393126	290.039062	117.578125
404843.109006	0.391566	4.307222	-0.345678
404844.187032	0.355746	258.496094	-232.812500
404844.189034	0.389256	258.496094	-232.812500
404844.191035	0.388086	4.268946	-0.446473
404845.203077	0.371957	289.843750	118.847656
404845.207077	0.388690	289.843750	118.847656
404845.209077	0.387860	4.266456	-0.529094
404846.285046	0.388766	245.312500	-242.871094
404846.287046	0.388842	4.277258	-0.440943
404847.267128	0.924680	283.496094	125.683594
404847.269129	0.389234	283.496094	125.683594
404847.273130	0.387168	4.258842	-0.484385
404848.349177	0.385766	256.250000	-229.687500
404848.351180	0.389134	4.280476	-0.452060
404849.365201	0.389762	288.378906	118.164062
404849.367203	0.390054	4.290596	-0.505271
404850.413265	0.375503	293.652344	-198.046875
404850.415267	0.389358	293.652344	-198.046875
404850.417266	0.388244	4.270683	-0.441373
404851.428182	0.295713	284.375000	124.121094
404851.430184	0.389766	284.375000	124.121094
404851.432184	0.388302	4.271321	-0.466980
404852.510689	0.385214	253.613281	-233.593750
404852.512691	0.389255	253.613281	-233.593750
404852.514691	0.388135	4.269486	-0.433064
404853.528750	0.389079	289.941406	117.187500
404853.532756	0.387371	4.261085	-0.470272
404854.578804	0.388658	275.292969	-216.308594
404854.580805	0.387892	4.266810	-0.414729
404855.623322	0.372728	295.507812	109.960937
404855.627322	0.388053	295.507812	109.960937
404855.629324	0.387206	4.259268	-0.473419
404856.674263	0.389156	257.324219	-232.128906
404856.676265	0.388088	4.268972	-0.415702
404857.687217	0.335877	296.777344	109.179687
404857.689219	0.389302	296.777344	109.179687
404857.693217	0.387109	4.258195	-0.458970
404858.737237	0.390731	271.386719	-219.628906
404858.739239	0.389381	4.283187	-0.280005
404859.785300	0.386964	305.273437	99.902344
404859.787302	0.388662	4.275282	-0.479710
404860.835328	0.390853	242.285156	-245.605469
404860.839329	0.389652	4.286174	-0.397939
404861.849421	0.380668	296.582031	110.839844
404861.851423	0.382132	296.582031	110.839844
404861.853424	0.387980	4.267776	-0.486759
404862.932395	0.389033	238.281250	-249.609375
404862.934398	0.387815	4.265968	-0.392226
404863.914396	0.389368	293.359375	114.843750
404863.918398	0.387383	4.261218	-0.438553
404864.994473	0.335271	254.003906	-233.691406
404864.996476	0.389613	254.003906	-233.691406
404864.998475	0.388327	4.271595	-0.369299
404866.012516	0.389470	301.367187	104.785156
404866.014519	0.388243	301.367187	104.785156
404866.016518	0.387416	4.261581	-0.441901
404867.058979	0.346642	279.003906	-212.207031
404867.060978	0.389593	279.003906	-212.207031
404867.062978	0.388366	4.272021	-0.347892
404868.075007	0.363126	291.699219	117.871094
404868.077007	0.389336	291.699219	117.871094
404868.081006	0.387326	4.260588	-0.439768
404869.159533	0.388664	265.625000	-222.851562
404869.161535	0.387677	4.264443	-0.175265
404870.172075	0.358330	301.855469	105.175781
404870.174077	0.391586	301.855469	105.175781
404870.176076	0.390212	4.292333	-0.447670
404871.254235	0.388771	251.562500	-235.351562
404871.256238	0.388993	4.278924	-0.364082
404872.237204	0.387749	291.308594	118.164062
404872.239205	0.388781	4.276594	-0.415330
404873.318125	0.376806	268.164062	-221.289062
404873.322126	0.387869	268.164062	-221.289062
404873.324126	0.387030	4.257327	-0.341489
404874.334141	0.386170	302.832031	104.003906
404874.336142	0.391111	302.832031	104.003906
404874.338141	0.389970	4.289666	-0.420693
404875.384106	0.390306	276.757812	-214.062500
404875.386108	0.389008	4.279084	-0.329406
404876.398626	0.386177	297.070312	110.742187
404876.400634	0.388850	4.277347	-0.415205
404877.480734	0.391046	248.242187	-237.695312
404877.482736	0.389593	4.285518	-0.109035
404878.496790	0.391102	304.589844	102.929687
404878.498793	0.389640	304.589844	102.929687
404878.500792	0.388846	4.277303	-0.407610
404879.544819	0.390141	260.253906	-227.539062
404879.546821	0.388938	4.278322	-0.306262
404880.558854	0.283122	294.628906	113.867187
404880.560858	0.390818	294.628906	113.867187
404880.562857	0.390798	4.298776	-0.370642
404881.640957	0.362829	242.089844	-243.066406
404881.642960	0.389215	242.089844	-243.066406
404881.644959	0.389162	4.280786	-0.338748
404882.656973	0.374784	299.902344	108.496094
404882.658976	0.388925	299.902344	108.496094
404882.660975	0.387777	4.265551	-0.377935
404883.707017	0.389249	270.996094	-218.261719
404883.709018	0.387939	4.267324	-0.307513
404884.721527	0.382002	290.429687	118.750000
404884.723528	0.389152	290.429687	118.750000
404884.725528	0.388026	4.268290	-0.349359
404885.803530	0.389452	251.269531	-232.031250
404885.805532	0.388224	4.270461	-0.277913
404886.819611	0.392026	296.191406	112.890625
404886.821611	0.390433	4.294762	-0.084062
404887.869621	0.389322	283.203125	-203.417969
404887.871623	0.388328	4.271613	-0.316421
404888.882554	0.353239	289.160156	120.898437
404888.884556	0.389298	289.160156	120.898437
404888.886557	0.388017	4.268192	-0.343302
404889.964605	0.387529	254.199219	-225.195312
404889.966606	0.389758	4.287335	-0.316972
404890.980659	0.389629	294.140625	116.113281
404890.984659	0.388248	4.270727	-0.357219
404892.062636	0.390219	254.687500	-224.511719
404892.064640	0.388817	4.276992	0.134335
404893.043579	0.298366	292.089844	118.066406
404893.045583	0.389494	292.089844	118.066406
404893.047581	0.388104	4.269149	-0.331353
404894.125668	0.368333	257.226562	-224.023437
404894.127670	0.388801	257.226562	-224.023437
404894.129669	0.387652	4.264169	-0.288125
404895.141637	0.377030	299.511719	111.132812
404895.143638	0.389153	299.511719	111.132812
404895.145640	0.387988	4.267873	-0.344336
404896.222570	0.351697	257.421875	-226.074219
404896.224572	0.389131	257.421875	-226.074219
404896.228570	0.387056	4.257611	-0.275235
404897.206542	0.390149	298.144531	112.890625
404897.208545	0.389999	4.289994	-0.345530
404898.286629	0.320152	254.980469	-228.222656
404898.288632	0.389054	254.980469	-228.222656
404898.290632	0.387710	4.264807	-0.271916
404899.272663	0.389370	292.871094	117.480469
404899.274665	0.388349	4.271843	-0.301996
404900.384764	0.385119	250.976562	-232.128906
404900.386764	0.388639	4.275025	-0.268336
404901.369716	0.390067	297.167969	112.792969
404901.371717	0.388981	4.278791	-0.324711
404903.464766	0.380365	310.156250	101.074219
404903.466767	0.389660	310.156250	101.074219
404903.468767	0.388552	4.274076	-0.325941
404905.528838	0.363088	302.050781	108.496094
404905.530840	0.389057	302.050781	108.496094
404905.534838	0.387788	4.265666	-0.313543
404907.626899	0.391194	311.816406	100.097656
404907.628899	0.390287	4.293158	-0.315036
404909.690918	0.388144	301.171875	110.058594
404909.692920	0.390660	4.297260	-0.300617
404911.885650	0.349679	362.695312	66.406250
404911.887649	0.389113	362.695312	66.406250
404911.889649	0.387868	4.266553	-0.295519
404914.051753	0.388138	401.367187	48.632812
404914.053754	0.387202	4.259223	0.024547
404916.112385	0.317159	395.507812	51.074219
404916.116385	0.388179	395.507812	51.074219
404916.118387	0.387324	4.260562	-0.219510
404918.210569	0.386312	406.445312	47.460937
404918.212571	0.389309	4.282399	-0.190345
404920.274693	0.378415	394.335937	52.734375
404920.276695	0.389275	394.335937	52.734375
404920.278695	0.388220	4.270417	-0.220112
404922.372903	0.390988	400.292969	50.878906
404922.374905	0.389472	4.284189	0.113607
404924.439930	0.388827	398.437500	53.417969
404924.441933	0.388076	4.268830	-0.193280
404925.453922	0.389879	184.472656	-249.316406
404925.455924	0.388776	4.276532	-0.192840
404926.335916	0.306505	302.832031	109.179687
404926.337917	0.389667	302.832031	109.179687
404926.339917	0.388275	4.271028	-0.251485
404927.417909	0.366959	256.250000	-216.796875
404927.419909	0.388808	256.250000	-216.796875
404927.421912	0.387641	4.264053	-0.264103
404930.694100	0.311305	404.296875	54.394531
404930.696101	0.389872	404.296875	54.394531
404930.698101	0.388408	4.272491	-0.178355
404932.824177	0.330272	430.371094	46.093750
404932.826179	0.389695	430.371094	46.093750
404932.828180	0.388345	4.271791	-0.117267
404934.856247	0.367408	410.546875	50.976562
404934.858251	0.389070	410.546875	50.976562
404934.860252	0.387920	4.267120	-0.165326
404936.924378	0.388162	397.851562	53.808594
404936.926383	0.387287	4.260154	-0.201503
404939.016991	0.288522	414.941406	47.265625
404939.018993	0.389733	414.941406	47.265625
404939.020994	0.388233	4.270567	-0.169682
404941.085137	0.389285	406.933594	48.828125
404941.087138	0.388371	4.272083	-0.144016
404943.179305	0.365834	421.972656	43.847656
404943.181305	0.389152	421.972656	43.847656
404943.183306	0.388039	4.268432	-0.187843
404947.471668	0.347128	500.195312	24.121094
404947.475667	0.387576	500.195312	24.121094
404947.477674	0.386718	4.253897	-0.033879
404949.568739	0.340165	516.308594	21.777344
404949.570745	0.389262	516.308594	21.777344
404949.572751	0.387942	4.267359	-0.002602
404951.470810	0.390816	401.562500	50.097656
404951.472813	0.389306	4.282363	0.028329
404953.566920	0.374501	408.300781	48.144531
404953.568923	0.389100	408.300781	48.144531
404953.570924	0.387955	4.267510	-0.160672
404955.633464	0.388763	400.000000	51.757812
404955.635466	0.387627	4.263894	-0.218653
404957.728071	0.349872	413.671875	47.363281
404957.730073	0.389548	413.671875	47.363281
404957.732075	0.388295	4.271250	-0.183310
404962.054508	0.389604	532.910156	20.703125
404962.056509	0.388823	4.277055	-0.002874
404964.120547	0.389448	509.277344	26.269531
404964.122548	0.388408	4.272491	-0.022840
404966.020630	0.389736	394.433594	57.421875
404966.022633	0.388523	394.433594	57.421875
404966.024632	0.387781	4.265587	-0.188719
404970.345042	0.389485	495.019531	32.421875
404970.347043	0.388117	4.269282	-0.011552
404972.441793	2.244837	517.480469	28.417969
404972.443798	0.389500	4.284499	0.005718
404974.341860	0.376920	394.726562	58.984375
404974.343863	0.389335	394.726562	58.984375
404974.345864	0.388133	4.269468	-0.162414
404976.408003	0.389133	383.691406	62.500000
404976.410004	0.387930	4.267226	-0.195175
404978.502647	0.315410	399.414062	56.640625
404978.504650	0.389388	399.414062	56.640625
404978.506652	0.387996	4.267953	-0.200029
404980.568744	0.390024	385.449219	60.839844
404980.570745	0.388606	4.274662	-0.196861
404982.631398	0.314150	379.492187	62.597656
404982.633400	0.389225	379.492187	62.597656
404982.635400	0.387775	4.265525	-0.196329
404984.730417	0.389763	390.527344	57.519531
404984.732421	0.388395	4.272340	-0.195972
405011.763124	0.384889	389.062500	62.890625
405011.765126	0.389749	389.062500	62.890625
405011.769126	0.387952	4.267474	-0.205125
405016.120024	0.277991	519.140625	29.394531
405016.122027	0.390462	519.140625	29.394531
405016.124028	0.389053	4.279580	0.001883
405072.121396	0.366576	428.417969	51.855469
405072.123398	0.389091	428.417969	51.855469
405072.125400	0.388976	4.278738	-0.185482
405074.187533	0.389025	413.867187	56.445312
405074.189535	0.387767	4.265436	-0.195033
405076.286077	0.390153	424.414062	52.246094
405076.288079	0.389172	4.280892	-0.009010
